********************************************************************************
***                            Micro-Cap 10.0.8.2                            ***
***                                                                          ***
***                                                                          ***
***                         AC Analysis of A_BUCK_CM                         ***
***                                                                          ***
********************************************************************************
Limits
======
Frequency Range  Log 1E6,1
Number of Points 2000
Temperature      Linear 27
Maximum Change % .
Noise Input      NONE
Noise Output     2
Run Options      Normal
State Variables  Zero
Operating Point  On


*****************************************************
***                Temperature=27                 ***
*****************************************************

Temperature=27 

DC Operating Point Voltages
===========================
Node         Voltage  Node         Voltage  Node         Voltage 
IN            0.000   2           526.042m  3             0.000  
OUT           0.000   5             0.000   X1.LL         0.000  
X1.X1.3       0.000   X1.X1.7       0.000   X1.X1.9       0.000  
X1.X1.10      0.000   X1.X1.12      0.000   X1.X1.13      0.000  
X1.X1.14      0.000   X1.X1.15      0.000   X1.X1.16      0.000  
X1.X1.17      0.000  

DC Operating Point Inductor Current
===================================
Inductor     Current  Inductor     Current 
X1.L          0.000   X1.X1.L1      0.000  


Operating Point for Devices of Type Resistor
============================================
Instance:              RESR         RLOAD         X1.RL     X1.X1.RVC      X1.X1.RE
V                    0.000         0.000         0.000         0.000         0.000 
Power DC Terms:
PD                   0.000         0.000         0.000         0.000         0.000 

DC Pin Currents:
Ir                   0.000         0.000         0.000         0.000         0.000 

Device Variables:
tc1                  0.000         0.000         0.000         0.000         0.000 
tc2                  0.000         0.000         0.000         0.000         0.000 


Instance:          X1.X1.R2      X1.X1.RD     X1.X1.RFM
V                    0.000         0.000         0.000 
Power DC Terms:
PD                   0.000         0.000         0.000 

DC Pin Currents:
Ir                   0.000         0.000         0.000 

Device Variables:
tc1                  0.000         0.000         0.000 
tc2                  0.000         0.000         0.000 



Operating Point for Devices of Type Inductor
============================================
Instance:              X1.L      X1.X1.L1
V                    0.000         0.000 
Power DC Terms:
PS                   0.000         0.000 

DC Pin Currents:
Il                   0.000         0.000 

Device Variables:
ic                   0.000         0.000 



Operating Point for Devices of Type Capacitor
=============================================
Instance:              COUT      X1.X1.C1      X1.X1.C2
V                    0.000         0.000         0.000 
Power DC Terms:
PS                   0.000         0.000         0.000 

DC Pin Currents:
Ic                   0.000         0.000         0.000 

Device Variables:
ic                   0.000         0.000         0.000 



Operating Point for Devices of Type Function Source
===================================================
Instance:           X1.EBD      X1.X1.E2      X1.X1.G1     X1.X1.GXF     X1.X1.EXF
V                 526.042m        0.000         0.000         0.000         0.000 
Power DC Terms:
PG                  0.000         0.000         0.000         0.000         0.000 

DC Pin Currents:
ISource             0.000         0.000         0.000         0.000         0.000 


Instance:         X1.X1.ED     X1.X1.EFM
V                   0.000         0.000 
Power DC Terms:
PG                  0.000         0.000 

DC Pin Currents:
ISource             0.000         0.000 



Operating Point for Devices of Type SPICE Poly
==============================================
Instance:         X1.X1.HI      X1.X1.E1
V                   0.000         0.000 
Power DC Terms:
PG                  0.000         0.000 

DC Pin Currents:
ISource             0.000         0.000 



Operating Point for Devices of Type SPICE Source
================================================
Instance:               V4            V5     X1.X1.VXF
V                   0.000         0.000         0.000 
Power DC Terms:
PG                  0.000         0.000         0.000 

DC Pin Currents:
ISource             0.000         0.000         0.000 


Waveform Values
===============
         F db(v(OUT)) ph(v(OUT))
      (Hz)             (Degrees)
      1.00      14.04         NA
      1.01      14.04   -403.41m
      1.01      14.04   -403.41m
      1.02      14.04   -407.41m
      1.03      14.04   -411.40m
      1.04      14.04   -415.40m
      1.04      14.04   -415.40m
      1.05      14.04   -419.39m
      1.06      14.04   -423.38m
      1.06      14.04   -423.38m
      1.07      14.04   -427.38m
      1.08      14.04   -431.37m
      1.09      14.04   -435.37m
      1.09      14.04   -435.37m
      1.10      14.04   -439.36m
      1.11      14.04   -443.35m
      1.12      14.04   -447.35m
      1.12      14.04   -447.35m
      1.13      14.04   -451.34m
      1.14      14.04   -455.33m
      1.15      14.04   -459.33m
      1.16      14.04   -463.32m
      1.16      14.04   -463.32m
      1.17      14.04   -467.32m
      1.18      14.04   -471.31m
      1.19      14.04   -475.30m
      1.20      14.04   -479.30m
      1.21      14.04   -483.29m
      1.21      14.04   -483.29m
      1.22      14.04   -487.29m
      1.23      14.04   -491.28m
      1.24      14.04   -495.27m
      1.25      14.04   -499.27m
      1.26      14.04   -503.26m
      1.26      14.04   -503.26m
      1.27      14.04   -507.26m
      1.28      14.04   -511.25m
      1.29      14.04   -515.24m
      1.30      14.04   -519.24m
      1.31      14.04   -523.23m
      1.32      14.04   -527.23m
      1.33      14.04   -531.22m
      1.34      14.04   -535.21m
      1.35      14.04   -539.21m
      1.36      14.04   -543.20m
      1.36      14.04   -543.20m
      1.37      14.04   -547.20m
      1.38      14.04   -551.19m
      1.39      14.04   -555.18m
      1.40      14.04   -559.18m
      1.41      14.04   -563.17m
      1.42      14.04   -567.16m
      1.43      14.04   -571.16m
      1.44      14.04   -575.15m
      1.45      14.04   -579.15m
      1.46      14.04   -583.14m
      1.47      14.04   -587.13m
      1.48      14.04   -591.13m
      1.49      14.04   -595.12m
      1.50      14.04   -599.12m
      1.51      14.04   -603.11m
      1.52      14.04   -607.10m
      1.53      14.04   -611.10m
      1.55      14.04   -619.08m
      1.56      14.04   -623.08m
      1.57      14.04   -627.07m
      1.58      14.04   -631.06m
      1.59      14.04   -635.06m
      1.60      14.04   -639.05m
      1.61      14.04   -643.04m
      1.62      14.04   -647.04m
      1.63      14.04   -651.03m
      1.64      14.04   -655.03m
      1.66      14.04   -663.02m
      1.67      14.04   -667.01m
      1.68      14.04   -671.00m
      1.69      14.04   -674.99m
      1.70      14.04   -678.99m
      1.71      14.04   -682.98m
      1.73      14.04   -690.97m
      1.74      14.04   -694.96m
      1.75      14.04   -698.95m
      1.76      14.04   -702.95m
      1.77      14.04   -706.95m
      1.79      14.04   -714.93m
      1.80      14.04   -718.92m
      1.81      14.04   -722.92m
      1.82      14.04   -726.91m
      1.84      14.04   -734.90m
      1.85      14.04   -738.89m
      1.86      14.04   -742.89m
      1.88      14.04   -750.87m
      1.89      14.04   -754.87m
      1.90      14.04   -758.86m
      1.91      14.04   -762.86m
      1.93      14.04   -770.84m
      1.94      14.04   -774.83m
      1.95      14.04   -778.83m
      1.97      14.04   -786.81m
      1.98      14.04   -790.81m
      2.00      14.04   -798.80m
      2.01      14.04   -802.79m
      2.02      14.04   -806.78m
      2.04      14.04   -814.77m
      2.05      14.04   -818.76m
      2.07      14.04   -826.75m
      2.08      14.04   -830.74m
      2.09      14.04   -834.74m
      2.11      14.04   -842.72m
      2.12      14.04   -846.72m
      2.14      14.04   -854.70m
      2.15      14.04   -858.70m
      2.17      14.04   -866.68m
      2.18      14.04   -870.68m
      2.20      14.04   -878.66m
      2.21      14.04   -882.66m
      2.23      14.04   -890.64m
      2.24      14.04   -894.64m
      2.26      14.04   -902.62m
      2.28      14.04   -910.61m
      2.29      14.04   -914.60m
      2.31      14.04   -922.59m
      2.32      14.04   -926.58m
      2.34      14.04   -934.56m
      2.36      14.04   -942.55m
      2.37      14.04   -946.55m
      2.39      14.04   -954.53m
      2.41      14.04   -962.52m
      2.42      14.04   -966.51m
      2.44      14.04   -974.50m
      2.46      14.04   -982.48m
      2.47      14.04   -986.48m
      2.49      14.04   -994.46m
      2.51      14.04      -1.00
      2.52      14.04      -1.01
      2.54      14.04      -1.01
      2.56      14.04      -1.02
      2.58      14.04      -1.03
      2.60      14.04      -1.04
      2.61      14.04      -1.04
      2.63      14.04      -1.05
      2.65      14.04      -1.06
      2.67      14.04      -1.07
      2.69      14.04      -1.07
      2.71      14.04      -1.08
      2.72      14.04      -1.09
      2.74      14.04      -1.09
      2.76      14.04      -1.10
      2.78      14.04      -1.11
      2.80      14.04      -1.12
      2.82      14.04      -1.13
      2.84      14.04      -1.13
      2.86      14.04      -1.14
      2.88      14.04      -1.15
      2.90      14.04      -1.16
      2.92      14.04      -1.17
      2.94      14.04      -1.17
      2.96      14.04      -1.18
      2.98      14.04      -1.19
      3.00      14.04      -1.20
      3.02      14.04      -1.21
      3.04      14.04      -1.21
      3.06      14.04      -1.22
      3.08      14.04      -1.23
      3.11      14.04      -1.24
      3.13      14.04      -1.25
      3.15      14.04      -1.26
      3.17      14.04      -1.27
      3.19      14.04      -1.27
      3.22      14.04      -1.29
      3.24      14.04      -1.29
      3.26      14.04      -1.30
      3.28      14.04      -1.31
      3.31      14.04      -1.32
      3.33      14.04      -1.33
      3.35      14.04      -1.34
      3.37      14.04      -1.35
      3.40      14.04      -1.36
      3.42      14.04      -1.37
      3.45      14.04      -1.38
      3.47      14.04      -1.39
      3.49      14.04      -1.39
      3.52      14.04      -1.41
      3.54      14.04      -1.41
      3.57      14.03      -1.43
      3.59      14.03      -1.43
      3.62      14.03      -1.45
      3.64      14.03      -1.45
      3.67      14.03      -1.47
      3.69      14.03      -1.47
      3.72      14.03      -1.49
      3.74      14.03      -1.49
      3.77      14.03      -1.51
      3.80      14.03      -1.52
      3.82      14.03      -1.53
      3.85      14.03      -1.54
      3.88      14.03      -1.55
      3.90      14.03      -1.56
      3.93      14.03      -1.57
      3.96      14.03      -1.58
      3.98      14.03      -1.59
      4.01      14.03      -1.60
      4.04      14.03      -1.61
      4.07      14.03      -1.63
      4.10      14.03      -1.64
      4.12      14.03      -1.65
      4.15      14.03      -1.66
      4.18      14.03      -1.67
      4.21      14.03      -1.68
      4.24      14.03      -1.69
      4.27      14.03      -1.71
      4.30      14.03      -1.72
      4.33      14.03      -1.73
      4.36      14.03      -1.74
      4.39      14.03      -1.75
      4.42      14.03      -1.76
      4.45      14.03      -1.78
      4.48      14.03      -1.79
      4.51      14.03      -1.80
      4.54      14.03      -1.81
      4.57      14.03      -1.82
      4.61      14.03      -1.84
      4.64      14.03      -1.85
      4.67      14.03      -1.86
      4.70      14.03      -1.88
      4.74      14.03      -1.89
      4.77      14.03      -1.90
      4.80      14.03      -1.92
      4.83      14.03      -1.93
      4.87      14.03      -1.94
      4.90      14.03      -1.96
      4.94      14.03      -1.97
      4.97      14.03      -1.98
      5.00      14.03      -2.00
      5.04      14.03      -2.01
      5.07      14.03      -2.02
      5.11      14.03      -2.04
      5.14      14.03      -2.05
      5.18      14.03      -2.07
      5.22      14.03      -2.08
      5.25      14.03      -2.10
      5.29      14.03      -2.11
      5.33      14.03      -2.13
      5.36      14.03      -2.14
      5.40      14.03      -2.16
      5.44      14.03      -2.17
      5.47      14.03      -2.18
      5.51      14.03      -2.20
      5.55      14.03      -2.22
      5.59      14.03      -2.23
      5.63      14.03      -2.25
      5.67      14.03      -2.26
      5.71      14.03      -2.28
      5.75      14.03      -2.30
      5.79      14.03      -2.31
      5.83      14.03      -2.33
      5.87      14.03      -2.34
      5.91      14.03      -2.36
      5.95      14.03      -2.38
      5.99      14.03      -2.39
      6.03      14.03      -2.41
      6.07      14.03      -2.42
      6.11      14.03      -2.44
      6.16      14.03      -2.46
      6.20      14.03      -2.47
      6.24      14.03      -2.49
      6.29      14.03      -2.51
      6.33      14.03      -2.53
      6.37      14.03      -2.54
      6.42      14.03      -2.56
      6.46      14.03      -2.58
      6.51      14.03      -2.60
      6.55      14.03      -2.61
      6.60      14.03      -2.63
      6.64      14.03      -2.65
      6.69      14.03      -2.67
      6.74      14.03      -2.69
      6.78      14.03      -2.71
      6.83      14.03      -2.73
      6.88      14.03      -2.75
      6.93      14.03      -2.77
      6.97      14.03      -2.78
      7.02      14.03      -2.80
      7.07      14.03      -2.82
      7.12      14.03      -2.84
      7.17      14.03      -2.86
      7.22      14.03      -2.88
      7.27      14.03      -2.90
      7.32      14.03      -2.92
      7.37      14.03      -2.94
      7.42      14.03      -2.96
      7.47      14.03      -2.98
      7.52      14.03      -3.00
      7.58      14.03      -3.02
      7.63      14.02      -3.04
      7.68      14.02      -3.06
      7.73      14.02      -3.08
      7.79      14.02      -3.11
      7.84      14.02      -3.13
      7.90      14.02      -3.15
      7.95      14.02      -3.17
      8.01      14.02      -3.20
      8.06      14.02      -3.22
      8.12      14.02      -3.24
      8.17      14.02      -3.26
      8.23      14.02      -3.28
      8.29      14.02      -3.31
      8.35      14.02      -3.33
      8.40      14.02      -3.35
      8.46      14.02      -3.37
      8.52      14.02      -3.40
      8.58      14.02      -3.42
      8.64      14.02      -3.45
      8.70      14.02      -3.47
      8.76      14.02      -3.49
      8.82      14.02      -3.52
      8.88      14.02      -3.54
      8.94      14.02      -3.57
      9.00      14.02      -3.59
      9.07      14.02      -3.62
      9.13      14.02      -3.64
      9.19      14.02      -3.67
      9.26      14.02      -3.69
      9.32      14.02      -3.72
      9.39      14.02      -3.74
      9.45      14.02      -3.77
      9.52      14.02      -3.80
      9.58      14.02      -3.82
      9.65      14.02      -3.85
      9.72      14.02      -3.88
      9.78      14.02      -3.90
      9.85      14.02      -3.93
      9.92      14.02      -3.96
      9.99      14.02      -3.98
     10.06      14.02      -4.01
     10.13      14.02      -4.04
     10.20      14.01      -4.07
     10.27      14.01      -4.09
     10.34      14.01      -4.12
     10.41      14.01      -4.15
     10.48      14.01      -4.18
     10.56      14.01      -4.21
     10.63      14.01      -4.24
     10.70      14.01      -4.27
     10.78      14.01      -4.30
     10.85      14.01      -4.33
     10.93      14.01      -4.36
     11.00      14.01      -4.38
     11.08      14.01      -4.42
     11.16      14.01      -4.45
     11.23      14.01      -4.48
     11.31      14.01      -4.51
     11.39      14.01      -4.54
     11.47      14.01      -4.57
     11.55      14.01      -4.60
     11.63      14.01      -4.63
     11.71      14.01      -4.67
     11.79      14.01      -4.70
     11.87      14.01      -4.73
     11.95      14.01      -4.76
     12.04      14.01      -4.80
     12.12      14.01      -4.83
     12.21      14.01      -4.86
     12.29      14.00      -4.90
     12.38      14.00      -4.93
     12.46      14.00      -4.96
     12.55      14.00      -5.00
     12.63      14.00      -5.03
     12.72      14.00      -5.07
     12.81      14.00      -5.10
     12.90      14.00      -5.14
     12.99      14.00      -5.17
     13.08      14.00      -5.21
     13.17      14.00      -5.24
     13.26      14.00      -5.28
     13.35      14.00      -5.32
     13.45      14.00      -5.36
     13.54      14.00      -5.39
     13.63      14.00      -5.43
     13.73      14.00      -5.47
     13.82      14.00      -5.50
     13.92      14.00      -5.54
     14.01      13.99      -5.58
     14.11      13.99      -5.62
     14.21      13.99      -5.66
     14.31      13.99      -5.70
     14.41      13.99      -5.74
     14.51      13.99      -5.77
     14.61      13.99      -5.81
     14.71      13.99      -5.85
     14.81      13.99      -5.89
     14.91      13.99      -5.93
     15.02      13.99      -5.98
     15.12      13.99      -6.02
     15.23      13.99      -6.06
     15.33      13.99      -6.10
     15.44      13.99      -6.14
     15.55      13.99      -6.19
     15.65      13.98      -6.22
     15.76      13.98      -6.27
     15.87      13.98      -6.31
     15.98      13.98      -6.35
     16.09      13.98      -6.40
     16.20      13.98      -6.44
     16.32      13.98      -6.49
     16.43      13.98      -6.53
     16.54      13.98      -6.58
     16.66      13.98      -6.62
     16.77      13.98      -6.67
     16.89      13.98      -6.71
     17.01      13.97      -6.76
     17.12      13.97      -6.80
     17.24      13.97      -6.85
     17.36      13.97      -6.90
     17.48      13.97      -6.95
     17.60      13.97      -6.99
     17.73      13.97      -7.04
     17.85      13.97      -7.09
     17.97      13.97      -7.14
     18.10      13.97      -7.19
     18.22      13.97      -7.24
     18.35      13.96      -7.29
     18.48      13.96      -7.34
     18.61      13.96      -7.39
     18.73      13.96      -7.44
     18.86      13.96      -7.49
     19.00      13.96      -7.54
     19.13      13.96      -7.59
     19.26      13.96      -7.64
     19.39      13.96      -7.70
     19.53      13.95      -7.75
     19.66      13.95      -7.80
     19.80      13.95      -7.86
     19.94      13.95      -7.91
     20.07      13.95      -7.96
     20.21      13.95      -8.02
     20.35      13.95      -8.07
     20.50      13.95      -8.13
     20.64      13.95      -8.18
     20.78      13.94      -8.24
     20.92      13.94      -8.29
     21.07      13.94      -8.35
     21.22      13.94      -8.41
     21.36      13.94      -8.47
     21.51      13.94      -8.52
     21.66      13.94      -8.58
     21.81      13.93      -8.64
     21.96      13.93      -8.70
     22.11      13.93      -8.76
     22.27      13.93      -8.82
     22.42      13.93      -8.88
     22.58      13.93      -8.94
     22.73      13.93      -9.00
     22.89      13.92      -9.06
     23.05      13.92      -9.12
     23.21      13.92      -9.19
     23.37      13.92      -9.25
     23.53      13.92      -9.31
     23.70      13.92      -9.38
     23.86      13.91      -9.44
     24.03      13.91      -9.50
     24.19      13.91      -9.57
     24.36      13.91      -9.63
     24.53      13.91      -9.70
     24.70      13.91      -9.76
     24.87      13.90      -9.83
     25.04      13.90      -9.90
     25.22      13.90      -9.97
     25.39      13.90     -10.03
     25.57      13.90     -10.10
     25.75      13.89     -10.17
     25.92      13.89     -10.24
     26.10      13.89     -10.31
     26.29      13.89     -10.38
     26.47      13.89     -10.45
     26.65      13.88     -10.52
     26.84      13.88     -10.59
     27.02      13.88     -10.66
     27.21      13.88     -10.73
     27.40      13.88     -10.81
     27.59      13.87     -10.88
     27.78      13.87     -10.95
     27.97      13.87     -11.03
     28.17      13.87     -11.10
     28.36      13.86     -11.17
     28.56      13.86     -11.25
     28.76      13.86     -11.33
     28.96      13.86     -11.40
     29.16      13.86     -11.48
     29.36      13.85     -11.56
     29.56      13.85     -11.63
     29.77      13.85     -11.71
     29.97      13.84     -11.79
     30.18      13.84     -11.87
     30.39      13.84     -11.95
     30.60      13.84     -12.03
     30.81      13.83     -12.11
     31.03      13.83     -12.19
     31.24      13.83     -12.27
     31.46      13.83     -12.36
     31.68      13.82     -12.44
     31.90      13.82     -12.53
     32.12      13.82     -12.61
     32.34      13.81     -12.69
     32.57      13.81     -12.78
     32.79      13.81     -12.86
     33.02      13.80     -12.95
     33.25      13.80     -13.04
     33.48      13.80     -13.12
     33.71      13.80     -13.21
     33.94      13.79     -13.30
     34.18      13.79     -13.39
     34.42      13.79     -13.48
     34.66      13.78     -13.57
     34.90      13.78     -13.66
     35.14      13.77     -13.75
     35.38      13.77     -13.84
     35.63      13.77     -13.93
     35.87      13.76     -14.02
     36.12      13.76     -14.12
     36.37      13.76     -14.21
     36.63      13.75     -14.31
     36.88      13.75     -14.40
     37.14      13.75     -14.50
     37.39      13.74     -14.59
     37.65      13.74     -14.69
     37.91      13.73     -14.78
     38.18      13.73     -14.88
     38.44      13.73     -14.98
     38.71      13.72     -15.08
     38.98      13.72     -15.18
     39.25      13.71     -15.28
     39.52      13.71     -15.38
     39.79      13.70     -15.48
     40.07      13.70     -15.58
     40.35      13.69     -15.69
     40.63      13.69     -15.79
     40.91      13.69     -15.89
     41.19      13.68     -16.00
     41.48      13.68     -16.10
     41.76      13.67     -16.20
     42.05      13.67     -16.31
     42.35      13.66     -16.42
     42.64      13.66     -16.53
     42.94      13.65     -16.64
     43.23      13.65     -16.74
     43.53      13.64     -16.85
     43.83      13.64     -16.96
     44.14      13.63     -17.07
     44.45      13.62     -17.19
     44.75      13.62     -17.29
     45.06      13.61     -17.41
     45.38      13.61     -17.52
     45.69      13.60     -17.63
     46.01      13.60     -17.75
     46.33      13.59     -17.86
     46.65      13.58     -17.98
     46.97      13.58     -18.09
     47.30      13.57     -18.21
     47.63      13.57     -18.33
     47.96      13.56     -18.45
     48.29      13.55     -18.57
     48.62      13.55     -18.68
     48.96      13.54     -18.80
     49.30      13.53     -18.92
     49.64      13.53     -19.05
     49.99      13.52     -19.17
     50.33      13.51     -19.29
     50.68      13.51     -19.41
     51.03      13.50     -19.54
     51.39      13.49     -19.66
     51.74      13.49     -19.79
     52.10      13.48     -19.91
     52.46      13.47     -20.04
     52.83      13.46     -20.17
     53.19      13.46     -20.29
     53.56      13.45     -20.42
     53.93      13.44     -20.55
     54.31      13.43     -20.68
     54.69      13.43     -20.81
     55.06      13.42     -20.94
     55.45      13.41     -21.08
     55.83      13.40     -21.21
     56.22      13.39     -21.34
     56.61      13.39     -21.47
     57.00      13.38     -21.61
     57.40      13.37     -21.74
     57.79      13.36     -21.88
     58.19      13.35     -22.01
     58.60      13.34     -22.15
     59.00      13.33     -22.29
     59.41      13.33     -22.43
     59.83      13.32     -22.57
     60.24      13.31     -22.71
     60.66      13.30     -22.85
     61.08      13.29     -22.99
     61.50      13.28     -23.13
     61.93      13.27     -23.27
     62.36      13.26     -23.42
     62.79      13.25     -23.56
     63.23      13.24     -23.70
     63.67      13.23     -23.85
     64.11      13.22     -23.99
     64.55      13.21     -24.14
     65.00      13.20     -24.29
     65.45      13.19     -24.43
     65.90      13.18     -24.58
     66.36      13.17     -24.73
     66.82      13.15     -24.88
     67.28      13.14     -25.03
     67.75      13.13     -25.18
     68.22      13.12     -25.33
     68.69      13.11     -25.48
     69.17      13.10     -25.64
     69.65      13.09     -25.79
     70.13      13.07     -25.94
     70.62      13.06     -26.10
     71.11      13.05     -26.26
     71.60      13.04     -26.41
     72.10      13.02     -26.57
     72.60      13.01     -26.72
     73.10      13.00     -26.88
     73.61      12.99     -27.04
     74.12      12.97     -27.20
     74.63      12.96     -27.36
     75.15      12.95     -27.52
     75.67      12.93     -27.68
     76.20      12.92     -27.84
     76.73      12.91     -28.00
     77.26      12.89     -28.17
     77.79      12.88     -28.33
     78.33      12.86     -28.49
     78.88      12.85     -28.66
     79.42      12.84     -28.82
     79.97      12.82     -28.99
     80.53      12.81     -29.15
     81.09      12.79     -29.32
     81.65      12.78     -29.49
     82.22      12.76     -29.66
     82.79      12.75     -29.82
     83.36      12.73     -29.99
     83.94      12.72     -30.16
     84.52      12.70     -30.33
     85.11      12.68     -30.50
     85.70      12.67     -30.67
     86.29      12.65     -30.84
     86.89      12.63     -31.02
     87.49      12.62     -31.19
     88.10      12.60     -31.36
     88.71      12.58     -31.54
     89.33      12.57     -31.71
     89.94      12.55     -31.88
     90.57      12.53     -32.06
     91.20      12.51     -32.24
     91.83      12.50     -32.41
     92.47      12.48     -32.59
     93.11      12.46     -32.76
     93.75      12.44     -32.94
     94.40      12.42     -33.12
     95.06      12.40     -33.30
     95.72      12.39     -33.48
     96.38      12.37     -33.65
     97.05      12.35     -33.83
     97.72      12.33     -34.01
     98.40      12.31     -34.20
     99.08      12.29     -34.38
     99.77      12.27     -34.56
    100.46      12.25     -34.74
    101.16      12.23     -34.92
    101.86      12.21     -35.10
    102.57      12.19     -35.29
    103.28      12.17     -35.47
    103.99      12.14     -35.65
    104.72      12.12     -35.84
    105.44      12.10     -36.02
    106.17      12.08     -36.20
    106.91      12.06     -36.39
    107.65      12.04     -36.57
    108.40      12.01     -36.76
    109.15      11.99     -36.95
    109.91      11.97     -37.13
    110.67      11.95     -37.32
    111.44      11.92     -37.50
    112.21      11.90     -37.69
    112.99      11.88     -37.88
    113.77      11.85     -38.06
    114.56      11.83     -38.25
    115.35      11.80     -38.44
    116.15      11.78     -38.63
    116.96      11.76     -38.82
    117.77      11.73     -39.00
    118.59      11.71     -39.19
    119.41      11.68     -39.38
    120.24      11.66     -39.57
    121.07      11.63     -39.76
    121.91      11.61     -39.95
    122.76      11.58     -40.14
    123.61      11.55     -40.33
    124.47      11.53     -40.52
    125.33      11.50     -40.71
    126.20      11.47     -40.90
    127.07      11.45     -41.09
    127.95      11.42     -41.28
    128.84      11.39     -41.47
    129.73      11.37     -41.66
    130.63      11.34     -41.85
    131.54      11.31     -42.04
    132.45      11.28     -42.23
    133.37      11.25     -42.42
    134.30      11.22     -42.61
    135.23      11.20     -42.80
    136.17      11.17     -42.99
    137.11      11.14     -43.18
    138.06      11.11     -43.37
    139.02      11.08     -43.56
    139.98      11.05     -43.75
    140.95      11.02     -43.94
    141.93      10.99     -44.13
    142.91      10.96     -44.32
    143.91      10.93     -44.51
    144.90      10.90     -44.70
    145.91      10.87     -44.89
    146.92      10.84     -45.08
    147.94      10.80     -45.27
    148.97      10.77     -45.46
    150.00      10.74     -45.65
    151.04      10.71     -45.84
    152.09      10.68     -46.03
    153.14      10.64     -46.22
    154.20      10.61     -46.41
    155.27      10.58     -46.59
    156.35      10.55     -46.78
    157.43      10.51     -46.97
    158.53      10.48     -47.16
    159.63      10.44     -47.35
    160.73      10.41     -47.53
    161.85      10.38     -47.72
    162.97      10.34     -47.91
    164.10      10.31     -48.10
    165.24      10.27     -48.28
    166.38      10.24     -48.47
    167.54      10.20     -48.65
    168.70      10.17     -48.84
    169.87      10.13     -49.03
    171.05      10.10     -49.21
    172.23      10.06     -49.39
    173.43      10.03     -49.58
    174.63       9.99     -49.76
    175.84       9.95     -49.95
    177.06       9.92     -50.13
    178.29       9.88     -50.31
    179.53       9.84     -50.50
    180.77       9.80     -50.68
    182.02       9.77     -50.86
    183.29       9.73     -51.04
    184.56       9.69     -51.22
    185.84       9.65     -51.40
    187.13       9.62     -51.58
    188.42       9.58     -51.76
    189.73       9.54     -51.94
    191.05       9.50     -52.12
    192.37       9.46     -52.30
    193.71       9.42     -52.48
    195.05       9.38     -52.65
    196.40       9.34     -52.83
    197.76       9.30     -53.01
    199.14       9.26     -53.18
    200.52       9.22     -53.36
    201.91       9.18     -53.53
    203.31       9.14     -53.71
    204.72       9.10     -53.88
    206.14       9.06     -54.06
    207.57       9.02     -54.23
    209.01       8.98     -54.40
    210.46       8.94     -54.57
    211.92       8.90     -54.74
    213.39       8.85     -54.91
    214.87       8.81     -55.08
    216.36       8.77     -55.25
    217.86       8.73     -55.42
    219.37       8.69     -55.59
    220.89       8.64     -55.76
    222.42       8.60     -55.92
    223.96       8.56     -56.09
    225.52       8.51     -56.26
    227.08       8.47     -56.42
    228.65       8.43     -56.59
    230.24       8.38     -56.75
    231.84       8.34     -56.91
    233.44       8.30     -57.07
    235.06       8.25     -57.24
    236.69       8.21     -57.40
    238.34       8.16     -57.56
    239.99       8.12     -57.72
    241.65       8.07     -57.88
    243.33       8.03     -58.04
    245.02       7.98     -58.19
    246.72       7.94     -58.35
    248.43       7.89     -58.51
    250.15       7.85     -58.66
    251.88       7.80     -58.82
    253.63       7.76     -58.97
    255.39       7.71     -59.13
    257.16       7.67     -59.28
    258.94       7.62     -59.43
    260.74       7.57     -59.58
    262.55       7.53     -59.73
    264.37       7.48     -59.88
    266.20       7.43     -60.03
    268.05       7.39     -60.18
    269.91       7.34     -60.33
    271.78       7.29     -60.48
    273.66       7.24     -60.62
    275.56       7.20     -60.77
    277.47       7.15     -60.91
    279.40       7.10     -61.06
    281.34       7.05     -61.20
    283.29       7.01     -61.34
    285.25       6.96     -61.49
    287.23       6.91     -61.63
    289.22       6.86     -61.77
    291.23       6.81     -61.91
    293.25       6.76     -62.05
    295.28       6.71     -62.18
    297.33       6.67     -62.32
    299.39       6.62     -62.46
    301.47       6.57     -62.59
    303.56       6.52     -62.73
    305.66       6.47     -62.86
    307.78       6.42     -62.99
    309.92       6.37     -63.13
    312.07       6.32     -63.26
    314.23       6.27     -63.39
    316.41       6.22     -63.52
    318.60       6.17     -63.65
    320.81       6.12     -63.78
    323.04       6.07     -63.90
    325.28       6.02     -64.03
    327.53       5.97     -64.16
    329.81       5.92     -64.28
    332.09       5.87     -64.41
    334.40       5.82     -64.53
    336.72       5.77     -64.65
    339.05       5.72     -64.77
    341.40       5.66     -64.90
    343.77       5.61     -65.02
    346.15       5.56     -65.14
    348.55       5.51     -65.25
    350.97       5.46     -65.37
    353.41       5.41     -65.49
    355.86       5.35     -65.61
    358.33       5.30     -65.72
    360.81       5.25     -65.84
    363.31       5.20     -65.95
    365.83       5.15     -66.06
    368.37       5.09     -66.17
    370.92       5.04     -66.29
    373.50       4.99     -66.40
    376.09       4.94     -66.51
    378.69       4.89     -66.61
    381.32       4.83     -66.72
    383.97       4.78     -66.83
    386.63       4.73     -66.94
    389.31       4.67     -67.04
    392.01       4.62     -67.15
    394.73       4.57     -67.25
    397.47       4.52     -67.35
    400.22       4.46     -67.46
    403.00       4.41     -67.56
    405.79       4.36     -67.66
    408.61       4.30     -67.76
    411.44       4.25     -67.86
    414.29       4.19     -67.96
    417.17       4.14     -68.05
    420.06       4.09     -68.15
    422.97       4.03     -68.25
    425.91       3.98     -68.34
    428.86       3.93     -68.43
    431.83       3.87     -68.53
    434.83       3.82     -68.62
    437.85       3.76     -68.71
    440.88       3.71     -68.80
    443.94       3.65     -68.89
    447.02       3.60     -68.98
    450.12       3.55     -69.07
    453.24       3.49     -69.16
    456.38       3.44     -69.25
    459.55       3.38     -69.33
    462.74       3.33     -69.42
    465.94       3.27     -69.50
    469.18       3.22     -69.58
    472.43       3.16     -69.67
    475.71       3.11     -69.75
    479.01       3.05     -69.83
    482.33       3.00     -69.91
    485.67       2.94     -69.99
    489.04       2.89     -70.07
    492.43       2.83     -70.15
    495.85       2.78     -70.23
    499.29       2.72     -70.30
    502.75       2.67     -70.38
    506.24       2.61     -70.45
    509.75       2.56     -70.53
    513.28       2.50     -70.60
    516.84       2.45     -70.67
    520.43       2.39     -70.74
    524.03       2.33     -70.81
    527.67       2.28     -70.88
    531.33       2.22     -70.95
    535.01       2.17     -71.02
    538.72       2.11     -71.09
    542.46       2.05     -71.16
    546.22       2.00     -71.22
    550.01       1.94     -71.29
    553.82       1.89     -71.35
    557.66       1.83     -71.42
    561.53       1.77     -71.48
    565.43       1.72     -71.54
    569.35       1.66     -71.60
    573.30       1.61     -71.66
    577.27       1.55     -71.72
    581.28       1.49     -71.78
    585.31       1.44     -71.84
    589.37       1.38     -71.90
    593.45       1.32     -71.96
    597.57       1.27     -72.01
    601.71       1.21     -72.07
    605.89       1.16     -72.12
    610.09       1.10     -72.18
    614.32       1.04     -72.23
    618.58    985.36m     -72.28
    622.87    928.70m     -72.33
    627.19    872.01m     -72.38
    631.54    815.29m     -72.43
    635.92    758.53m     -72.48
    640.33    701.76m     -72.53
    644.77    644.96m     -72.58
    649.24    588.14m     -72.62
    653.74    531.30m     -72.67
    658.28    474.32m     -72.72
    662.84    417.47m     -72.76
    667.44    360.47m     -72.80
    672.07    303.48m     -72.85
    676.73    246.49m     -72.89
    681.42    189.49m     -72.93
    686.15    132.39m     -72.97
    690.91     75.29m     -73.01
    695.70     18.20m     -73.05
    700.52    -38.87m     -73.09
    705.38    -96.04m     -73.13
    710.27   -153.20m     -73.17
    715.20   -210.44m     -73.20
    720.16   -267.66m     -73.24
    725.15   -324.85m     -73.27
    730.18   -382.12m     -73.31
    735.25   -439.47m     -73.34
    740.35   -496.78m     -73.37
    745.48   -554.05m     -73.41
    750.65   -611.39m     -73.44
    755.86   -668.79m     -73.47
    761.10   -726.15m     -73.50
    766.38   -783.56m     -73.53
    771.69   -840.91m     -73.55
    777.04   -898.32m     -73.58
    782.43   -955.77m     -73.61
    787.86      -1.01     -73.63
    793.32      -1.07     -73.66
    798.82      -1.13     -73.68
    804.36      -1.19     -73.71
    809.94      -1.24     -73.73
    815.56      -1.30     -73.75
    821.22      -1.36     -73.77
    826.91      -1.42     -73.80
    832.65      -1.47     -73.82
    838.42      -1.53     -73.84
    844.23      -1.59     -73.85
    850.09      -1.65     -73.87
    855.99      -1.70     -73.89
    861.92      -1.76     -73.91
    867.90      -1.82     -73.92
    873.92      -1.88     -73.94
    879.98      -1.93     -73.95
    886.08      -1.99     -73.97
    892.23      -2.05     -73.98
    898.41      -2.11     -73.99
    904.65      -2.17     -74.00
    910.92      -2.22     -74.01
    917.24      -2.28     -74.02
    923.60      -2.34     -74.03
    930.00      -2.40     -74.04
    936.45      -2.45     -74.05
    942.95      -2.51     -74.06
    949.49      -2.57     -74.06
    956.07      -2.63     -74.07
    962.70      -2.68     -74.07
    969.38      -2.74     -74.08
    976.10      -2.80     -74.08
    982.87      -2.86     -74.08
    989.69      -2.92     -74.09
    996.55      -2.97     -74.09
     1.00K      -3.00     -74.09
     1.01K      -3.08     -74.09
     1.02K      -3.17     -74.09
     1.02K      -3.17     -74.09
     1.03K      -3.25     -74.08
     1.04K      -3.33     -74.08
     1.05K      -3.41     -74.07
     1.05K      -3.41     -74.07
     1.06K      -3.49     -74.07
     1.07K      -3.57     -74.06
     1.08K      -3.64     -74.05
     1.08K      -3.64     -74.05
     1.09K      -3.72     -74.04
     1.10K      -3.80     -74.03
     1.11K      -3.87     -74.01
     1.11K      -3.87     -74.01
     1.12K      -3.95     -74.00
     1.13K      -4.02     -73.99
     1.14K      -4.10     -73.97
     1.14K      -4.10     -73.97
     1.15K      -4.17     -73.95
     1.16K      -4.24     -73.93
     1.17K      -4.31     -73.92
     1.18K      -4.38     -73.90
     1.18K      -4.38     -73.90
     1.19K      -4.45     -73.87
     1.20K      -4.52     -73.85
     1.21K      -4.59     -73.83
     1.22K      -4.66     -73.81
     1.23K      -4.73     -73.78
     1.23K      -4.73     -73.78
     1.24K      -4.80     -73.76
     1.25K      -4.86     -73.73
     1.26K      -4.93     -73.70
     1.27K      -5.00     -73.68
     1.28K      -5.06     -73.65
     1.29K      -5.13     -73.62
     1.30K      -5.19     -73.59
     1.30K      -5.19     -73.59
     1.31K      -5.25     -73.56
     1.32K      -5.32     -73.53
     1.33K      -5.38     -73.50
     1.34K      -5.44     -73.46
     1.35K      -5.50     -73.43
     1.36K      -5.56     -73.40
     1.37K      -5.63     -73.36
     1.38K      -5.69     -73.33
     1.39K      -5.75     -73.29
     1.40K      -5.80     -73.26
     1.41K      -5.86     -73.22
     1.42K      -5.92     -73.19
     1.43K      -5.98     -73.15
     1.44K      -6.04     -73.11
     1.45K      -6.09     -73.07
     1.46K      -6.15     -73.03
     1.47K      -6.21     -72.99
     1.48K      -6.26     -72.95
     1.49K      -6.32     -72.91
     1.50K      -6.37     -72.87
     1.51K      -6.43     -72.83
     1.52K      -6.48     -72.79
     1.53K      -6.54     -72.75
     1.54K      -6.59     -72.71
     1.55K      -6.65     -72.66
     1.56K      -6.70     -72.62
     1.57K      -6.75     -72.58
     1.58K      -6.80     -72.53
     1.59K      -6.85     -72.49
     1.61K      -6.96     -72.40
     1.62K      -7.01     -72.36
     1.63K      -7.06     -72.31
     1.64K      -7.11     -72.26
     1.65K      -7.16     -72.22
     1.66K      -7.21     -72.17
     1.67K      -7.26     -72.13
     1.69K      -7.35     -72.03
     1.70K      -7.40     -71.98
     1.71K      -7.45     -71.94
     1.72K      -7.50     -71.89
     1.73K      -7.55     -71.84
     1.74K      -7.59     -71.79
     1.76K      -7.69     -71.69
     1.77K      -7.73     -71.64
     1.78K      -7.78     -71.59
     1.79K      -7.82     -71.54
     1.81K      -7.91     -71.44
     1.82K      -7.96     -71.39
     1.83K      -8.00     -71.34
     1.84K      -8.05     -71.29
     1.86K      -8.13     -71.19
     1.87K      -8.18     -71.14
     1.88K      -8.22     -71.08
     1.90K      -8.31     -70.98
     1.91K      -8.35     -70.93
     1.92K      -8.39     -70.88
     1.93K      -8.43     -70.82
     1.95K      -8.52     -70.72
     1.96K      -8.56     -70.66
     1.98K      -8.64     -70.56
     1.99K      -8.68     -70.50
     2.00K      -8.72     -70.45
     2.02K      -8.80     -70.34
     2.03K      -8.84     -70.29
     2.04K      -8.88     -70.23
     2.06K      -8.96     -70.12
     2.07K      -8.99     -70.07
     2.09K      -9.07     -69.96
     2.10K      -9.11     -69.90
     2.12K      -9.18     -69.79
     2.13K      -9.22     -69.74
     2.15K      -9.30     -69.63
     2.16K      -9.33     -69.57
     2.18K      -9.41     -69.46
     2.19K      -9.44     -69.40
     2.21K      -9.51     -69.29
     2.22K      -9.55     -69.23
     2.24K      -9.62     -69.12
     2.25K      -9.65     -69.06
     2.27K      -9.72     -68.95
     2.28K      -9.76     -68.89
     2.30K      -9.83     -68.78
     2.32K      -9.90     -68.66
     2.33K      -9.93     -68.61
     2.35K     -10.00     -68.49
     2.36K     -10.03     -68.43
     2.38K     -10.10     -68.32
     2.40K     -10.16     -68.20
     2.41K     -10.19     -68.15
     2.43K     -10.26     -68.03
     2.45K     -10.32     -67.91
     2.46K     -10.35     -67.86
     2.48K     -10.41     -67.74
     2.50K     -10.48     -67.62
     2.52K     -10.54     -67.51
     2.53K     -10.57     -67.45
     2.55K     -10.63     -67.33
     2.57K     -10.69     -67.21
     2.59K     -10.75     -67.10
     2.60K     -10.78     -67.04
     2.62K     -10.84     -66.92
     2.64K     -10.90     -66.80
     2.66K     -10.95     -66.69
     2.68K     -11.01     -66.57
     2.70K     -11.07     -66.45
     2.71K     -11.09     -66.39
     2.73K     -11.15     -66.27
     2.75K     -11.21     -66.16
     2.77K     -11.26     -66.04
     2.79K     -11.31     -65.92
     2.81K     -11.37     -65.80
     2.83K     -11.42     -65.69
     2.85K     -11.47     -65.57
     2.87K     -11.53     -65.45
     2.89K     -11.58     -65.33
     2.91K     -11.63     -65.21
     2.93K     -11.68     -65.09
     2.95K     -11.73     -64.98
     2.97K     -11.78     -64.86
     2.99K     -11.83     -64.74
     3.01K     -11.88     -64.62
     3.03K     -11.93     -64.50
     3.05K     -11.98     -64.39
     3.07K     -12.02     -64.27
     3.10K     -12.10     -64.09
     3.12K     -12.14     -63.97
     3.14K     -12.19     -63.86
     3.16K     -12.24     -63.74
     3.18K     -12.28     -63.62
     3.20K     -12.33     -63.50
     3.23K     -12.39     -63.33
     3.25K     -12.44     -63.21
     3.27K     -12.48     -63.09
     3.29K     -12.53     -62.98
     3.32K     -12.59     -62.80
     3.34K     -12.63     -62.68
     3.36K     -12.68     -62.57
     3.39K     -12.74     -62.39
     3.41K     -12.78     -62.27
     3.43K     -12.82     -62.16
     3.46K     -12.88     -61.98
     3.48K     -12.92     -61.87
     3.51K     -12.98     -61.69
     3.53K     -13.02     -61.58
     3.55K     -13.06     -61.46
     3.58K     -13.12     -61.29
     3.60K     -13.16     -61.17
     3.63K     -13.22     -61.00
     3.65K     -13.26     -60.89
     3.68K     -13.31     -60.71
     3.70K     -13.35     -60.60
     3.73K     -13.40     -60.43
     3.76K     -13.46     -60.26
     3.78K     -13.49     -60.14
     3.81K     -13.55     -59.97
     3.84K     -13.60     -59.80
     3.86K     -13.64     -59.69
     3.89K     -13.69     -59.52
     3.92K     -13.74     -59.35
     3.94K     -13.77     -59.24
     3.97K     -13.82     -59.07
     4.00K     -13.87     -58.90
     4.03K     -13.92     -58.73
     4.05K     -13.96     -58.62
     4.08K     -14.00     -58.45
     4.11K     -14.05     -58.29
     4.14K     -14.10     -58.12
     4.17K     -14.15     -57.95
     4.20K     -14.19     -57.79
     4.22K     -14.22     -57.68
     4.25K     -14.27     -57.51
     4.28K     -14.31     -57.35
     4.31K     -14.36     -57.19
     4.34K     -14.40     -57.02
     4.37K     -14.45     -56.86
     4.40K     -14.49     -56.70
     4.43K     -14.53     -56.54
     4.47K     -14.59     -56.32
     4.50K     -14.63     -56.16
     4.53K     -14.67     -56.00
     4.56K     -14.71     -55.84
     4.59K     -14.75     -55.68
     4.62K     -14.79     -55.52
     4.65K     -14.83     -55.36
     4.69K     -14.88     -55.15
     4.72K     -14.92     -55.00
     4.75K     -14.96     -54.84
     4.78K     -15.00     -54.68
     4.82K     -15.05     -54.48
     4.85K     -15.09     -54.32
     4.88K     -15.12     -54.17
     4.92K     -15.17     -53.96
     4.95K     -15.21     -53.81
     4.99K     -15.25     -53.60
     5.02K     -15.29     -53.45
     5.06K     -15.33     -53.25
     5.09K     -15.37     -53.10
     5.13K     -15.41     -52.90
     5.16K     -15.45     -52.75
     5.20K     -15.49     -52.55
     5.23K     -15.52     -52.40
     5.27K     -15.57     -52.20
     5.31K     -15.61     -52.01
     5.34K     -15.64     -51.86
     5.38K     -15.68     -51.67
     5.42K     -15.72     -51.47
     5.46K     -15.76     -51.28
     5.49K     -15.79     -51.13
     5.53K     -15.83     -50.94
     5.57K     -15.87     -50.75
     5.61K     -15.91     -50.56
     5.65K     -15.95     -50.37
     5.69K     -15.99     -50.19
     5.73K     -16.02     -50.00
     5.77K     -16.06     -49.81
     5.81K     -16.09     -49.63
     5.85K     -16.13     -49.45
     5.89K     -16.17     -49.26
     5.93K     -16.20     -49.08
     5.97K     -16.24     -48.90
     6.01K     -16.27     -48.72
     6.05K     -16.30     -48.54
     6.09K     -16.34     -48.36
     6.14K     -16.38     -48.14
     6.18K     -16.41     -47.96
     6.22K     -16.44     -47.79
     6.26K     -16.47     -47.61
     6.31K     -16.51     -47.39
     6.35K     -16.54     -47.22
     6.40K     -16.58     -47.01
     6.44K     -16.61     -46.83
     6.48K     -16.64     -46.66
     6.53K     -16.67     -46.45
     6.58K     -16.71     -46.24
     6.62K     -16.74     -46.08
     6.67K     -16.77     -45.87
     6.71K     -16.80     -45.70
     6.76K     -16.84     -45.50
     6.81K     -16.87     -45.29
     6.85K     -16.90     -45.13
     6.90K     -16.93     -44.93
     6.95K     -16.96     -44.73
     7.00K     -16.99     -44.53
     7.05K     -17.02     -44.33
     7.09K     -17.05     -44.18
     7.14K     -17.08     -43.98
     7.19K     -17.11     -43.79
     7.24K     -17.14     -43.60
     7.29K     -17.17     -43.40
     7.34K     -17.19     -43.21
     7.39K     -17.22     -43.03
     7.45K     -17.26     -42.80
     7.50K     -17.28     -42.61
     7.55K     -17.31     -42.43
     7.60K     -17.34     -42.25
     7.65K     -17.36     -42.06
     7.71K     -17.40     -41.85
     7.76K     -17.42     -41.67
     7.82K     -17.45     -41.45
     7.87K     -17.48     -41.27
     7.92K     -17.50     -41.10
     7.98K     -17.53     -40.89
     8.03K     -17.55     -40.71
     8.09K     -17.58     -40.51
     8.15K     -17.61     -40.30
     8.20K     -17.63     -40.13
     8.26K     -17.66     -39.93
     8.32K     -17.68     -39.73
     8.37K     -17.71     -39.56
     8.43K     -17.73     -39.37
     8.49K     -17.76     -39.17
     8.55K     -17.78     -38.97
     8.61K     -17.80     -38.78
     8.67K     -17.83     -38.59
     8.73K     -17.85     -38.40
     8.79K     -17.88     -38.21
     8.85K     -17.90     -38.02
     8.91K     -17.92     -37.84
     8.97K     -17.94     -37.65
     9.04K     -17.97     -37.44
     9.10K     -17.99     -37.26
     9.16K     -18.01     -37.08
     9.23K     -18.03     -36.87
     9.29K     -18.06     -36.69
     9.35K     -18.08     -36.52
     9.42K     -18.10     -36.32
     9.48K     -18.12     -36.14
     9.55K     -18.14     -35.94
     9.62K     -18.16     -35.75
     9.68K     -18.18     -35.58
     9.75K     -18.20     -35.38
     9.82K     -18.22     -35.19
     9.89K     -18.24     -35.00
     9.95K     -18.26     -34.84
    10.02K     -18.28     -34.65
    10.09K     -18.30     -34.46
    10.16K     -18.32     -34.28
    10.23K     -18.34     -34.10
    10.30K     -18.35     -33.92
    10.38K     -18.38     -33.71
    10.45K     -18.39     -33.53
    10.52K     -18.41     -33.36
    10.59K     -18.43     -33.18
    10.67K     -18.45     -32.98
    10.74K     -18.46     -32.81
    10.81K     -18.48     -32.64
    10.89K     -18.50     -32.45
    10.97K     -18.52     -32.26
    11.04K     -18.53     -32.09
    11.12K     -18.55     -31.91
    11.20K     -18.56     -31.72
    11.27K     -18.58     -31.56
    11.35K     -18.60     -31.38
    11.43K     -18.61     -31.20
    11.51K     -18.63     -31.02
    11.59K     -18.64     -30.84
    11.67K     -18.66     -30.67
    11.75K     -18.67     -30.49
    11.83K     -18.69     -30.32
    11.91K     -18.70     -30.15
    12.00K     -18.72     -29.96
    12.08K     -18.73     -29.80
    12.16K     -18.74     -29.63
    12.25K     -18.76     -29.45
    12.33K     -18.77     -29.28
    12.42K     -18.79     -29.10
    12.50K     -18.80     -28.95
    12.59K     -18.81     -28.77
    12.68K     -18.82     -28.59
    12.77K     -18.84     -28.42
    12.85K     -18.85     -28.27
    12.94K     -18.86     -28.10
    13.03K     -18.87     -27.93
    13.12K     -18.89     -27.76
    13.21K     -18.90     -27.60
    13.31K     -18.91     -27.42
    13.40K     -18.92     -27.26
    13.49K     -18.93     -27.10
    13.59K     -18.94     -26.92
    13.68K     -18.95     -26.77
    13.77K     -18.96     -26.61
    13.87K     -18.98     -26.44
    13.97K     -18.99     -26.27
    14.06K     -19.00     -26.12
    14.16K     -19.01     -25.96
    14.26K     -19.02     -25.80
    14.36K     -19.03     -25.64
    14.46K     -19.04     -25.48
    14.56K     -19.04     -25.32
    14.66K     -19.05     -25.16
    14.76K     -19.06     -25.01
    14.86K     -19.07     -24.85
    14.97K     -19.08     -24.69
    15.07K     -19.09     -24.54
    15.17K     -19.10     -24.39
    15.28K     -19.11     -24.23
    15.38K     -19.11     -24.08
    15.49K     -19.12     -23.93
    15.60K     -19.13     -23.77
    15.71K     -19.14     -23.62
    15.82K     -19.14     -23.47
    15.93K     -19.15     -23.31
    16.04K     -19.16     -23.17
    16.15K     -19.17     -23.02
    16.26K     -19.17     -22.87
    16.37K     -19.18     -22.73
    16.49K     -19.19     -22.57
    16.60K     -19.19     -22.43
    16.72K     -19.20     -22.28
    16.83K     -19.20     -22.14
    16.95K     -19.21     -21.99
    17.07K     -19.21     -21.85
    17.18K     -19.22     -21.71
    17.30K     -19.23     -21.57
    17.42K     -19.23     -21.43
    17.54K     -19.24     -21.29
    17.67K     -19.24     -21.13
    17.79K     -19.25     -21.00
    17.91K     -19.25     -20.86
    18.04K     -19.25     -20.72
    18.16K     -19.26     -20.58
    18.29K     -19.26     -20.44
    18.41K     -19.27     -20.31
    18.54K     -19.27     -20.17
    18.67K     -19.27     -20.03
    18.80K     -19.28     -19.90
    18.93K     -19.28     -19.76
    19.06K     -19.28     -19.63
    19.19K     -19.29     -19.50
    19.33K     -19.29     -19.36
    19.46K     -19.29     -19.23
    19.60K     -19.29     -19.09
    19.73K     -19.30     -18.97
    19.87K     -19.30     -18.84
    20.01K     -19.30     -18.70
    20.14K     -19.30     -18.58
    20.28K     -19.30     -18.45
    20.42K     -19.31     -18.33
    20.57K     -19.31     -18.19
    20.71K     -19.31     -18.07
    20.85K     -19.31     -17.94
    21.00K     -19.31     -17.81
    21.14K     -19.31     -17.69
    21.29K     -19.31     -17.57
    21.44K     -19.31     -17.44
    21.59K     -19.31     -17.31
    21.74K     -19.31     -17.19
    21.89K     -19.31     -17.07
    22.04K     -19.31     -16.95
    22.19K     -19.31     -16.83
    22.34K     -19.31     -16.71
    22.50K     -19.31     -16.59
    22.66K     -19.31     -16.47
    22.81K     -19.31     -16.35
    22.97K     -19.31     -16.23
    23.13K     -19.31     -16.12
    23.29K     -19.31     -16.00
    23.45K     -19.30     -15.88
    23.61K     -19.30     -15.77
    23.78K     -19.30     -15.65
    23.94K     -19.30     -15.54
    24.11K     -19.30     -15.42
    24.28K     -19.29     -15.31
    24.45K     -19.29     -15.19
    24.61K     -19.29     -15.09
    24.79K     -19.28     -14.97
    24.96K     -19.28     -14.86
    25.13K     -19.28     -14.75
    25.30K     -19.27     -14.64
    25.48K     -19.27     -14.53
    25.66K     -19.27     -14.42
    25.83K     -19.26     -14.31
    26.01K     -19.26     -14.20
    26.19K     -19.25     -14.09
    26.38K     -19.25     -13.98
    26.56K     -19.24     -13.88
    26.74K     -19.24     -13.77
    26.93K     -19.23     -13.66
    27.12K     -19.23     -13.56
    27.30K     -19.22     -13.46
    27.49K     -19.22     -13.35
    27.68K     -19.21     -13.25
    27.88K     -19.21     -13.14
    28.07K     -19.20     -13.04
    28.26K     -19.19     -12.94
    28.46K     -19.19     -12.83
    28.66K     -19.18     -12.73
    28.86K     -19.17     -12.63
    29.06K     -19.16     -12.53
    29.26K     -19.16     -12.43
    29.46K     -19.15     -12.33
    29.66K     -19.14     -12.23
    29.87K     -19.13     -12.13
    30.08K     -19.12     -12.03
    30.29K     -19.11     -11.93
    30.50K     -19.11     -11.84
    30.71K     -19.10     -11.74
    30.92K     -19.09     -11.64
    31.13K     -19.08     -11.55
    31.35K     -19.07     -11.45
    31.57K     -19.06     -11.36
    31.79K     -19.05     -11.26
    32.01K     -19.04     -11.17
    32.23K     -19.03     -11.07
    32.45K     -19.01     -10.98
    32.68K     -19.00     -10.88
    32.90K     -18.99     -10.79
    33.13K     -18.98     -10.70
    33.36K     -18.97     -10.61
    33.59K     -18.96     -10.52
    33.83K     -18.94     -10.42
    34.06K     -18.93     -10.33
    34.30K     -18.92     -10.24
    34.54K     -18.90     -10.15
    34.78K     -18.89     -10.06
    35.02K     -18.87      -9.97
    35.26K     -18.86      -9.88
    35.50K     -18.85      -9.79
    35.75K     -18.83      -9.70
    36.00K     -18.82      -9.61
    36.25K     -18.80      -9.52
    36.50K     -18.78      -9.43
    36.75K     -18.77      -9.35
    37.01K     -18.75      -9.26
    37.26K     -18.73      -9.17
    37.52K     -18.72      -9.09
    37.78K     -18.70      -9.00
    38.04K     -18.68      -8.91
    38.31K     -18.66      -8.82
    38.57K     -18.65      -8.74
    38.84K     -18.63      -8.65
    39.11K     -18.61      -8.57
    39.38K     -18.59      -8.48
    39.66K     -18.57      -8.40
    39.93K     -18.55      -8.31
    40.21K     -18.52      -8.23
    40.49K     -18.50      -8.14
    40.77K     -18.48      -8.06
    41.05K     -18.46      -7.98
    41.33K     -18.44      -7.89
    41.62K     -18.41      -7.81
    41.91K     -18.39      -7.72
    42.20K     -18.37      -7.64
    42.49K     -18.34      -7.56
    42.79K     -18.32      -7.47
    43.08K     -18.29      -7.39
    43.38K     -18.27      -7.31
    43.68K     -18.24      -7.23
    43.99K     -18.21      -7.14
    44.29K     -18.19      -7.06
    44.60K     -18.16      -6.98
    44.91K     -18.13      -6.89
    45.22K     -18.10      -6.81
    45.53K     -18.07      -6.73
    45.85K     -18.04      -6.65
    46.17K     -18.01      -6.56
    46.49K     -17.98      -6.48
    46.81K     -17.95      -6.40
    47.13K     -17.92      -6.32
    47.46K     -17.88      -6.24
    47.79K     -17.85      -6.15
    48.12K     -17.81      -6.07
    48.46K     -17.78      -5.99
    48.79K     -17.74      -5.91
    49.13K     -17.71      -5.82
    49.47K     -17.67      -5.74
    49.81K     -17.63      -5.66
    50.16K     -17.59      -5.57
    50.51K     -17.55      -5.49
    50.86K     -17.51      -5.40
    51.21K     -17.47      -5.32
    51.57K     -17.43      -5.24
    51.92K     -17.39      -5.15
    52.28K     -17.35      -5.07
    52.65K     -17.30      -4.98
    53.01K     -17.26      -4.90
    53.38K     -17.21      -4.81
    53.75K     -17.17      -4.73
    54.12K     -17.12      -4.64
    54.50K     -17.07      -4.55
    54.87K     -17.02      -4.47
    55.25K     -16.97      -4.38
    55.64K     -16.92      -4.29
    56.02K     -16.86      -4.20
    56.41K     -16.81      -4.11
    56.80K     -16.75      -4.02
    57.20K     -16.70      -3.93
    57.59K     -16.64      -3.84
    57.99K     -16.58      -3.75
    58.40K     -16.52      -3.65
    58.80K     -16.46      -3.56
    59.21K     -16.40      -3.47
    59.62K     -16.33      -3.37
    60.03K     -16.27      -3.28
    60.45K     -16.20      -3.18
    60.87K     -16.13      -3.08
    61.29K     -16.06      -2.98
    61.72K     -15.99      -2.88
    62.14K     -15.92      -2.78
    62.57K     -15.84      -2.68
    63.01K     -15.77      -2.57
    63.45K     -15.69      -2.46
    63.89K     -15.61      -2.36
    64.33K     -15.53      -2.25
    64.77K     -15.44      -2.14
    65.22K     -15.36      -2.02
    65.68K     -15.27      -1.91
    66.13K     -15.18      -1.79
    66.59K     -15.09      -1.67
    67.05K     -14.99      -1.55
    67.52K     -14.89      -1.43
    67.99K     -14.79      -1.30
    68.46K     -14.69      -1.17
    68.93K     -14.59      -1.04
    69.41K     -14.48   -904.50m
    69.89K     -14.37   -766.47m
    70.38K     -14.25   -623.00m
    70.86K     -14.14   -479.78m
    71.36K     -14.02   -327.60m
    71.85K     -13.89   -175.32m
    72.35K     -13.77    -16.46m
    72.85K     -13.63    146.08m
    73.36K     -13.50    315.97m
    73.86K     -13.36    486.76m
    74.38K     -13.22    669.16m
    74.89K     -13.07    853.09m
    75.41K     -12.92       1.05
    75.93K     -12.76       1.25
    76.46K     -12.60       1.45
    76.99K     -12.43       1.67
    77.53K     -12.26       1.90
    78.06K     -12.08       2.13
    78.60K     -11.90       2.38
    79.15K     -11.70       2.64
    79.70K     -11.51       2.91
    80.25K     -11.30       3.20
    80.81K     -11.09       3.50
    81.37K     -10.86       3.82
    81.93K     -10.63       4.15
    82.50K     -10.39       4.51
    83.07K     -10.14       4.89
    83.65K      -9.88       5.30
    84.23K      -9.61       5.73
    84.81K      -9.32       6.20
    85.40K      -9.02       6.70
    85.99K      -8.71       7.24
    86.59K      -8.38       7.83
    87.19K      -8.03       8.48
    87.80K      -7.67       9.19
    88.40K      -7.29       9.95
    89.02K      -6.88      10.81
    89.63K      -6.45      11.75
    90.26K      -5.99      12.82
    90.88K      -5.51      14.00
    91.51K      -4.99      15.35
    92.15K      -4.44      16.91
    92.79K      -3.84      18.69
    93.43K      -3.21      20.76
    94.08K      -2.53      23.20
    94.73K      -1.81      26.09
    95.39K      -1.03      29.60
    96.05K   -206.11m      33.84
    96.71K    643.67m      39.01
    97.39K       1.52      45.55
    98.06K       2.34      53.44
    98.74K       3.04      63.06
    99.43K       3.51      74.32
   100.12K       3.63      86.45
   100.81K       3.36      98.47
   101.51K       2.76     109.56
   102.21K       1.93     119.01
   102.92K    972.45m     126.86
   103.64K    -24.18m     133.27
   104.35K   -988.83m     138.35
   105.08K      -1.94     142.57
   105.81K      -2.83     146.02
   106.54K      -3.67     148.86
   107.28K      -4.47     151.27
   108.02K      -5.22     153.31
   108.77K      -5.93     155.07
   109.53K      -6.60     156.61
   110.29K      -7.24     157.94
   111.05K      -7.84     159.11
   111.82K      -8.41     160.16
   112.60K      -8.97     161.10
   113.38K      -9.49     161.94
   114.16K      -9.99     162.69
   114.96K     -10.48     163.39
   115.75K     -10.94     164.01
   116.56K     -11.39     164.60
   117.36K     -11.82     165.12
   118.18K     -12.24     165.62
   119.00K     -12.65     166.07
   119.82K     -13.04     166.49
   120.65K     -13.42     166.89
   121.49K     -13.79     167.26
   122.33K     -14.15     167.60
   123.18K     -14.50     167.93
   124.04K     -14.85     168.23
   124.90K     -15.18     168.52
   125.76K     -15.51     168.79
   126.63K     -15.82     169.05
   127.51K     -16.14     169.29
   128.40K     -16.44     169.53
   129.29K     -16.74     169.75
   130.18K     -17.03     169.96
   131.09K     -17.32     170.16
   132.00K     -17.61     170.35
   132.91K     -17.88     170.54
   133.83K     -18.16     170.71
   134.76K     -18.42     170.88
   135.70K     -18.69     171.04
   136.64K     -18.95     171.20
   137.58K     -19.20     171.35
   138.54K     -19.45     171.50
   139.50K     -19.70     171.63
   140.47K     -19.95     171.77
   141.44K     -20.19     171.90
   142.42K     -20.42     172.02
   143.41K     -20.66     172.15
   144.40K     -20.89     172.26
   145.41K     -21.12     172.38
   146.41K     -21.34     172.49
   147.43K     -21.57     172.60
   148.45K     -21.79     172.70
   149.48K     -22.00     172.80
   150.52K     -22.22     172.90
   151.56K     -22.43     173.00
   152.61K     -22.64     173.09
   153.67K     -22.85     173.18
   154.74K     -23.06     173.27
   155.81K     -23.27     173.35
   156.89K     -23.47     173.44
   157.98K     -23.67     173.52
   159.07K     -23.87     173.60
   160.18K     -24.07     173.68
   161.29K     -24.26     173.75
   162.41K     -24.46     173.83
   163.53K     -24.65     173.90
   164.67K     -24.84     173.97
   165.81K     -25.03     174.04
   166.96K     -25.22     174.11
   168.12K     -25.40     174.18
   169.28K     -25.59     174.24
   170.46K     -25.77     174.31
   171.64K     -25.95     174.37
   172.83K     -26.13     174.43
   174.03K     -26.31     174.49
   175.24K     -26.49     174.55
   176.45K     -26.67     174.61
   177.67K     -26.85     174.66
   178.91K     -27.02     174.72
   180.15K     -27.20     174.77
   181.40K     -27.37     174.83
   182.65K     -27.54     174.88
   183.92K     -27.71     174.93
   185.20K     -27.88     174.98
   186.48K     -28.05     175.03
   187.77K     -28.22     175.08
   189.08K     -28.39     175.13
   190.39K     -28.55     175.18
   191.71K     -28.72     175.23
   193.04K     -28.88     175.27
   194.38K     -29.04     175.32
   195.72K     -29.21     175.36
   197.08K     -29.37     175.41
   198.45K     -29.53     175.45
   199.83K     -29.69     175.49
   201.21K     -29.85     175.54
   202.61K     -30.01     175.58
   204.01K     -30.17     175.62
   205.43K     -30.33     175.66
   206.85K     -30.48     175.70
   208.29K     -30.64     175.74
   209.73K     -30.80     175.78
   211.18K     -30.95     175.82
   212.65K     -31.10     175.85
   214.12K     -31.26     175.89
   215.61K     -31.41     175.93
   217.10K     -31.56     175.96
   218.61K     -31.72     176.00
   220.13K     -31.87     176.03
   221.65K     -32.02     176.07
   223.19K     -32.17     176.10
   224.74K     -32.32     176.14
   226.30K     -32.47     176.17
   227.87K     -32.62     176.20
   229.45K     -32.77     176.24
   231.04K     -32.91     176.27
   232.64K     -33.06     176.30
   234.25K     -33.21     176.33
   235.88K     -33.36     176.36
   237.51K     -33.50     176.39
   239.16K     -33.65     176.42
   240.82K     -33.79     176.45
   242.49K     -33.94     176.48
   244.17K     -34.08     176.51
   245.86K     -34.23     176.54
   247.57K     -34.37     176.57
   249.29K     -34.51     176.60
   251.02K     -34.66     176.63
   252.76K     -34.80     176.66
   254.51K     -34.94     176.68
   256.27K     -35.08     176.71
   258.05K     -35.22     176.74
   259.84K     -35.37     176.76
   261.64K     -35.51     176.79
   263.46K     -35.65     176.82
   265.28K     -35.79     176.84
   267.12K     -35.93     176.87
   268.98K     -36.07     176.89
   270.84K     -36.21     176.92
   272.72K     -36.34     176.94
   274.61K     -36.48     176.97
   276.52K     -36.62     176.99
   278.43K     -36.76     177.01
   280.37K     -36.90     177.04
   282.31K     -37.03     177.06
   284.27K     -37.17     177.08
   286.24K     -37.31     177.11
   288.22K     -37.44     177.13
   290.22K     -37.58     177.15
   292.24K     -37.72     177.17
   294.26K     -37.85     177.20
   296.30K     -37.99     177.22
   298.36K     -38.12     177.24
   300.43K     -38.26     177.26
   302.51K     -38.39     177.28
   304.61K     -38.53     177.30
   306.72K     -38.66     177.32
   308.85K     -38.80     177.34
   310.99K     -38.93     177.36
   313.15K     -39.07     177.39
   315.32K     -39.20     177.41
   317.51K     -39.33     177.42
   319.71K     -39.47     177.44
   321.92K     -39.60     177.46
   324.16K     -39.73     177.48
   326.41K     -39.86     177.50
   328.67K     -40.00     177.52
   330.95K     -40.13     177.54
   333.24K     -40.26     177.56
   335.55K     -40.39     177.58
   337.88K     -40.52     177.60
   340.22K     -40.66     177.61
   342.58K     -40.79     177.63
   344.96K     -40.92     177.65
   347.35K     -41.05     177.67
   349.76K     -41.18     177.68
   352.19K     -41.31     177.70
   354.63K     -41.44     177.72
   357.09K     -41.57     177.74
   359.57K     -41.70     177.75
   362.06K     -41.83     177.77
   364.57K     -41.96     177.79
   367.10K     -42.09     177.80
   369.64K     -42.22     177.82
   372.21K     -42.35     177.84
   374.79K     -42.48     177.85
   377.39K     -42.61     177.87
   380.01K     -42.74     177.88
   382.64K     -42.87     177.90
   385.29K     -43.00     177.91
   387.97K     -43.13     177.93
   390.66K     -43.25     177.94
   393.37K     -43.38     177.96
   396.09K     -43.51     177.97
   398.84K     -43.64     177.99
   401.61K     -43.77     178.00
   404.39K     -43.89     178.02
   407.20K     -44.02     178.03
   410.02K     -44.15     178.05
   412.86K     -44.28     178.06
   415.73K     -44.41     178.08
   418.61K     -44.53     178.09
   421.51K     -44.66     178.10
   424.44K     -44.79     178.12
   427.38K     -44.91     178.13
   430.35K     -45.04     178.15
   433.33K     -45.17     178.16
   436.33K     -45.29     178.17
   439.36K     -45.42     178.19
   442.41K     -45.55     178.20
   445.48K     -45.68     178.21
   448.57K     -45.80     178.22
   451.68K     -45.93     178.24
   454.81K     -46.05     178.25
   457.96K     -46.18     178.26
   461.14K     -46.31     178.28
   464.34K     -46.43     178.29
   467.56K     -46.56     178.30
   470.80K     -46.68     178.31
   474.07K     -46.81     178.32
   477.35K     -46.93     178.34
   480.66K     -47.06     178.35
   484.00K     -47.19     178.36
   487.35K     -47.31     178.37
   490.73K     -47.44     178.38
   494.14K     -47.56     178.40
   497.56K     -47.69     178.41
   501.01K     -47.81     178.42
   504.49K     -47.94     178.43
   507.99K     -48.06     178.44
   511.51K     -48.19     178.45
   515.06K     -48.31     178.46
   518.63K     -48.44     178.47
   522.23K     -48.56     178.48
   525.85K     -48.69     178.50
   529.50K     -48.81     178.51
   533.17K     -48.94     178.52
   536.86K     -49.06     178.53
   540.59K     -49.18     178.54
   544.34K     -49.31     178.55
   548.11K     -49.43     178.56
   551.91K     -49.56     178.57
   555.74K     -49.68     178.58
   559.60K     -49.80     178.59
   563.48K     -49.93     178.60
   567.38K     -50.05     178.61
   571.32K     -50.18     178.62
   575.28K     -50.30     178.63
   579.27K     -50.42     178.64
   583.29K     -50.55     178.65
   587.33K     -50.67     178.66
   591.41K     -50.80     178.67
   595.51K     -50.92     178.68
   599.64K     -51.04     178.69
   603.80K     -51.17     178.70
   607.98K     -51.29     178.70
   612.20K     -51.41     178.71
   616.45K     -51.54     178.72
   620.72K     -51.66     178.73
   625.03K     -51.78     178.74
   629.36K     -51.91     178.75
   633.73K     -52.03     178.76
   638.12K     -52.15     178.77
   642.55K     -52.28     178.78
   647.00K     -52.40     178.78
   651.49K     -52.52     178.79
   656.01K     -52.64     178.80
   660.56K     -52.77     178.81
   665.14K     -52.89     178.82
   669.75K     -53.01     178.83
   674.40K     -53.14     178.83
   679.07K     -53.26     178.84
   683.78K     -53.38     178.85
   688.52K     -53.50     178.86
   693.30K     -53.63     178.87
   698.11K     -53.75     178.88
   702.95K     -53.87     178.88
   707.82K     -53.99     178.89
   712.73K     -54.12     178.90
   717.68K     -54.24     178.91
   722.65K     -54.36     178.91
   727.66K     -54.48     178.92
   732.71K     -54.61     178.93
   737.79K     -54.73     178.94
   742.91K     -54.85     178.94
   748.06K     -54.97     178.95
   753.25K     -55.10     178.96
   758.47K     -55.22     178.97
   763.73K     -55.34     178.97
   769.03K     -55.46     178.98
   774.36K     -55.58     178.99
   779.73K     -55.71     178.99
   785.14K     -55.83     179.00
   790.59K     -55.95     179.01
   796.07K     -56.07     179.02
   801.59K     -56.19     179.02
   807.15K     -56.32     179.03
   812.75K     -56.44     179.04
   818.38K     -56.56     179.04
   824.06K     -56.68     179.05
   829.77K     -56.80     179.06
   835.53K     -56.93     179.06
   841.32K     -57.05     179.07
   847.16K     -57.17     179.08
   853.03K     -57.29     179.08
   858.95K     -57.41     179.09
   864.91K     -57.53     179.09
   870.90K     -57.66     179.10
   876.94K     -57.78     179.11
   883.02K     -57.90     179.11
   889.15K     -58.02     179.12
   895.32K     -58.14     179.13
   901.52K     -58.26     179.13
   907.78K     -58.39     179.14
   914.07K     -58.51     179.14
   920.41K     -58.63     179.15
   926.79K     -58.75     179.16
   933.22K     -58.87     179.16
   939.69K     -58.99     179.17
   946.21K     -59.11     179.17
   952.77K     -59.24     179.18
   959.38K     -59.36     179.18
   966.03K     -59.48     179.19
   972.73K     -59.60     179.20
   979.48K     -59.72     179.20
   986.27K     -59.84     179.21
   993.11K     -59.96     179.21
   1.00MEG     -60.09     179.22

